Wavelengths,Flux,Fluxerr
1150.611,-2.3316898,5.5449057e-14
1152.2874,-2.3998966,5.1620726e-14
1153.9637,-2.469875,4.738373e-14
1155.6401,-2.5416493,4.4382148e-14
1157.3165,-2.6152623,4.5674842e-14
1158.9929,-2.6907587,3.7763636e-14
1160.6693,-2.768182,3.4818045e-14
1162.3456,-2.847562,3.3148187e-14
1164.0221,-2.9289603,3.068002e-14
1165.6984,-3.0124042,2.807868e-14
1167.3748,-3.097942,2.7741732e-14
1169.0513,-3.1856294,2.439969e-14
1170.7275,-3.2754989,2.2826432e-14
1172.4039,-3.367596,2.2286226e-14
1174.0803,-3.4619749,2.1516478e-14
1175.7567,-3.558689,1.9467795e-14
1177.4331,-3.6577725,1.779759e-14
1179.1095,-3.7592795,1.6737864e-14
1180.7859,-3.8632746,1.5347981e-14
1182.4623,-3.969792,1.4860424e-14
1184.1387,-4.0788913,1.41794594e-14
1185.815,-4.190624,1.31112094e-14
1187.4915,-4.3050623,1.242539e-14
1189.1677,-4.4222198,1.20933935e-14
1190.8441,-4.542192,1.22577196e-14
1192.5205,-4.6650305,1.9170407e-14
1194.1969,-4.790769,1.7875131e-14
1195.8733,-4.9194803,1.7670056e-14
1197.5497,-5.0512424,1.3437515e-14
1199.2261,-5.186083,1.0429242e-14
1200.9025,-5.324085,9.708008e-15
1202.5789,-5.4653225,9.8215e-15
1204.2551,-5.6098113,1.057272e-14
1205.9316,-5.757682,1.037774e-14
1207.6079,-5.9089217,2.1987205e-14
1209.2844,-6.063695,2.282402e-14
1210.9608,-6.2219725,5.8113135e-14
1212.6371,-6.383883,2.437248e-14
1214.3136,-6.549477,6.650275e-14
1215.9899,-6.7188334,5.4605094e-14
1217.6663,-6.892,4.7386347e-14
1219.3427,-7.069106,2.7402915e-14
1221.019,-7.2501507,1.3544389e-14
1222.6953,-7.4352436,1.6679065e-14
1224.3718,-7.6245103,7.0832097e-15
1226.0481,-7.8179607,6.3189285e-15
1227.7246,-8.015672,6.155896e-15
1229.401,-8.2178,5.9802966e-15
1231.0773,-8.424311,6.027008e-15
1232.7538,-8.635385,6.1110746e-15
1234.43,-8.85105,6.111741e-15
1236.1064,-9.071431,5.9511895e-15
1237.7828,-9.296592,5.412686e-15
1239.4592,-9.526605,5.682906e-15
1241.1356,-9.761636,5.4701295e-15
1242.812,-10.001645,5.2073786e-15
1244.4884,-10.246843,5.402371e-15
1246.1648,-10.497232,5.259156e-15
1247.8412,-10.75297,5.0002333e-15
1249.5175,-11.014098,5.2554646e-15
1251.194,-11.280778,4.905235e-15
1252.8704,-11.553052,4.7855392e-15
1254.5466,-11.831023,4.923961e-15
1256.2231,-12.114845,5.0234267e-15
1257.8994,-12.404544,4.729893e-15
1259.5759,-12.700292,4.7139154e-15
1261.2522,-13.002111,4.442402e-15
1262.9286,-13.310217,4.7523343e-15
1264.605,-13.624624,4.8602755e-15
1266.2814,-13.945446,4.815008e-15
1267.9576,-14.272861,4.574857e-15
1269.6342,-14.606937,4.259759e-15
1271.3105,-14.947796,4.2259973e-15
1272.9868,-15.295502,4.354233e-15
1274.6633,-15.650272,4.222847e-15
1276.3396,-16.012144,4.2621868e-15
1278.0161,-16.38127,4.4524405e-15
1279.6924,-16.757744,4.4107877e-15
1281.3688,-17.141678,4.249192e-15
1283.0453,-17.533333,4.1739276e-15
1284.7216,-17.93258,4.074906e-15
1286.398,-18.339764,3.9938887e-15
1288.0743,-18.754894,4.149891e-15
1289.7507,-19.178255,4.149969e-15
1291.427,-19.609743,4.2411147e-15
1293.1035,-20.049717,4.9270916e-15
1294.7798,-20.498106,4.4345377e-15
1296.4563,-20.955208,4.4491786e-15
1298.1326,-21.42106,4.346855e-15
1299.809,-21.895935,4.4480267e-15
1301.4855,-22.379814,4.813879e-15
1303.1617,-22.872932,5.6240785e-15
1304.8381,-23.375412,5.6243695e-15
1306.5145,-23.88739,5.348175e-15
1308.1909,-24.409023,4.83317e-15
1309.8673,-24.940428,4.632451e-15
1311.5437,-25.481926,4.2072736e-15
1313.2201,-26.033396,4.033307e-15
1314.8965,-26.595287,4.0509702e-15
1316.5729,-27.167418,3.964928e-15
1318.2491,-27.75023,3.868175e-15
1319.9257,-28.34376,4.047887e-15
1321.6019,-28.948298,3.8534913e-15
1323.2783,-29.563713,4.102647e-15
1324.9548,-30.190636,4.039626e-15
1326.6311,-30.828722,4.2615875e-15
1328.3075,-31.478508,3.7818158e-15
1329.9839,-32.139957,4.3247334e-15
1331.6603,-32.813454,4.2275423e-15
1333.3367,-33.498947,4.6992435e-15
1335.0131,-34.196705,6.254707e-15
1336.6893,-34.906944,5.8967507e-15
1338.3658,-35.629925,4.897606e-15
1340.0421,-36.36552,4.1507054e-15
1341.7186,-37.114414,3.8443484e-15
1343.395,-37.876247,4.1360776e-15
1345.0713,-38.651436,4.175964e-15
1346.7478,-39.44044,4.193814e-15
1348.4241,-40.242973,4.272961e-15
1350.1005,-41.059628,7.0842854e-15
1351.7769,-41.890316,4.341694e-15
1353.4532,-42.735516,4.518563e-15
1355.1296,-43.59513,4.4513402e-15
1356.806,-44.46964,4.3045562e-15
1358.4823,-45.358875,4.701735e-15
1360.1588,-46.26362,4.573071e-15
1361.8352,-47.18358,4.4031636e-15
1363.5115,-48.119076,4.167547e-15
1365.188,-49.070625,4.217481e-15
1366.8644,-50.03799,4.2717383e-15
1368.5406,-51.021603,4.3385722e-15
1370.217,-52.02186,4.3029714e-15
1371.8934,-53.038647,4.114805e-15
1373.5698,-54.07235,4.0191802e-15
1375.2462,-55.123314,4.2713225e-15
1376.9226,-56.191704,4.4100787e-15
1378.599,-57.277416,4.4697814e-15
1380.2754,-58.381287,4.4080116e-15
1381.9517,-59.50296,4.1312414e-15
1383.6282,-60.643063,4.2879705e-15
1385.3046,-61.801758,4.403059e-15
1386.9808,-62.97908,4.3585347e-15
1388.6573,-64.17569,4.487777e-15
1390.3336,-65.39137,4.7706924e-15
1392.0101,-66.62691,5.0554844e-15
1393.6864,-67.88187,5.8943494e-15
1395.3628,-69.15718,6.2577083e-15
1397.0393,-70.45253,5.2697765e-15
1398.7156,-71.76845,4.6222694e-15
1400.3918,-73.10516,5.1701595e-15
1402.0684,-74.46328,5.4648203e-15
1403.7448,-75.84255,5.4873903e-15
1405.421,-77.24327,5.8429887e-15
1407.0975,-78.666115,5.4102785e-15
1408.7738,-80.110954,4.8840483e-15
1410.4503,-81.578285,4.3416884e-15
1412.1266,-83.06855,5.2752115e-15
1413.803,-84.58148,5.2394934e-15
1415.4795,-86.11806,5.18411e-15
1417.1558,-87.677605,5.0218178e-15
1418.8322,-89.26133,4.6624996e-15
1420.5085,-90.869156,4.760583e-15
1422.1849,-92.501396,4.8549934e-15
1423.8612,-94.15848,5.198057e-15
1425.5377,-95.84036,4.8406442e-15
1427.2141,-97.54795,5.5068606e-15
1428.8905,-99.28081,4.999961e-15
1430.5668,-101.03957,5.112035e-15
1432.2432,-102.82451,4.798426e-15
1433.9197,-104.63658,5.4779963e-15
1435.596,-106.47475,5.1794316e-15
1437.2723,-108.34055,5.3272286e-15
1438.9487,-110.23366,4.9776607e-15
1440.6251,-112.15466,5.046751e-15
1442.3015,-114.10355,4.85461e-15
1443.9779,-116.08117,5.179853e-15
1445.6543,-118.08728,4.7891963e-15
1447.3307,-120.12273,5.054018e-15
1449.0071,-122.1875,4.8212455e-15
1450.6833,-124.28201,5.342927e-15
1452.3599,-126.40671,5.0490537e-15
1454.0361,-128.56177,4.774281e-15
1455.7125,-130.74773,4.9439005e-15
1457.389,-132.96498,5.3089924e-15
1459.0653,-135.21295,4.942257e-15
1460.7417,-137.49341,5.367204e-15
1462.4181,-139.80605,5.588242e-15
1464.0945,-142.15071,4.724105e-15
1465.7709,-144.52898,5.3155565e-15
1467.4473,-146.93993,5.1575993e-15
1469.1237,-149.38487,5.1119857e-15
1470.8,-151.86317,5.5135407e-15
1472.4763,-154.37651,5.404041e-15
1474.1527,-156.92432,5.040833e-15
1475.8292,-159.50758,5.1083143e-15
1477.5055,-162.12553,5.21467e-15
1479.182,-164.77988,5.4813823e-15
1480.8583,-167.46991,5.2670122e-15
1482.5347,-170.19716,4.9737584e-15
1484.211,-172.96092,5.183862e-15
1485.8875,-175.76266,5.3037413e-15
1487.5638,-178.60179,5.410256e-15
1489.2402,-181.4792,5.6792373e-15
1490.9166,-184.39474,5.274732e-15
1492.593,-187.34998,4.9286196e-15
1494.2694,-190.3437,4.6683937e-15
1495.9457,-193.37766,5.247092e-15
1497.6222,-196.45207,5.5868527e-15
1499.2986,-199.56673,5.22059e-15
1500.9749,-202.72212,5.89263e-15
1502.6512,-205.91884,6.601684e-15
1504.3276,-209.15837,5.381371e-15
1506.004,-212.43938,5.7022986e-15
1507.6804,-215.76317,5.1798055e-15
1509.3568,-219.13004,5.4106275e-15
1511.0332,-222.54091,5.2163122e-15
1512.7096,-225.99506,5.3374074e-15
1514.3859,-229.49394,5.3661193e-15
1516.0624,-233.03743,5.441051e-15
1517.7388,-236.62645,5.203475e-15
1519.415,-240.2608,5.194176e-15
1521.0916,-243.94206,5.399925e-15
1522.7678,-247.66908,5.489206e-15
1524.4442,-251.4439,4.944275e-15
1526.1206,-255.26524,5.7915823e-15
1527.797,-259.1352,5.1526014e-15
1529.4735,-263.05392,5.598011e-15
1531.1498,-267.0209,5.601728e-15
1532.826,-271.0369,5.6916603e-15
1534.5026,-275.10275,5.362824e-15
1536.179,-279.2201,6.0637653e-15
1537.8552,-283.38638,5.87075e-15
1539.5317,-287.60577,7.6043145e-15
1541.2081,-291.87546,5.6024796e-15
1542.8845,-296.19775,5.9668296e-15
1544.5608,-300.57233,7.071495e-15
1546.2372,-305.00082,7.08585e-15
1547.9137,-309.4822,1.0484985e-14
1549.59,-314.01825,8.851461e-15
1551.2664,-318.6085,9.840359e-15
1552.9427,-323.25433,6.829629e-15
1554.6191,-327.95465,5.8056765e-15
1556.2954,-332.71207,5.132986e-15
1557.9719,-337.52615,5.6391426e-15
1559.6483,-342.39703,5.6848083e-15
1561.3247,-347.32477,5.719321e-15
1563.001,-352.31155,5.449048e-15
1564.6774,-357.35632,6.2865883e-15
1566.3539,-362.46188,5.26714e-15
1568.0302,-367.6241,6.20004e-15
1569.7065,-372.8488,5.583982e-15
1571.383,-378.13406,5.5150684e-15
1573.0593,-383.47906,6.898363e-15
1574.7356,-388.8877,5.718151e-15
1576.4121,-394.3574,5.693227e-15
1578.0885,-399.891,5.724136e-15
1579.7649,-405.487,5.963032e-15
1581.4413,-411.14697,5.4099456e-15
1583.1177,-416.87088,6.0366916e-15
1584.7941,-422.66144,5.000964e-15
1586.4703,-428.51608,4.8398798e-15
1588.1467,-434.43698,5.0708106e-15
1589.8232,-440.425,5.1981442e-15
1591.4995,-446.47974,5.188364e-15
1593.1759,-452.60184,5.672316e-15
1594.8523,-458.7939,5.1580016e-15
1596.5287,-465.05264,5.263587e-15
1598.2051,-471.38232,5.24177e-15
1599.8815,-477.78186,7.867311e-15
1601.5579,-484.25125,5.0272862e-15
1603.2343,-490.7916,5.263477e-15
1604.9105,-497.40488,5.475463e-15
1606.5869,-504.08966,4.854765e-15
1608.2634,-510.84756,5.426173e-15
1609.9397,-517.67737,5.053078e-15
1611.6162,-524.58307,5.1672783e-15
1613.2926,-531.56256,4.700596e-15
1614.9689,-538.6166,4.9389665e-15
1616.6453,-545.74805,5.134728e-15
1618.3217,-552.954,4.8679377e-15
1619.998,-560.23846,4.3026186e-15
1621.6744,-567.60034,5.1536343e-15
1623.3507,-575.03955,5.6618456e-15
1625.0272,-582.5586,4.574171e-15
1626.7036,-590.15594,4.7141305e-15
1628.3799,-597.83386,4.805043e-15
1630.0564,-605.59155,4.8453423e-15
1631.7328,-613.43207,5.314031e-15
1633.409,-621.3528,4.908365e-15
1635.0854,-629.3562,4.961743e-15
1636.7618,-637.444,4.535986e-15
1638.4382,-645.6135,5.171913e-15
1640.1146,-653.8684,5.09455e-15
1641.791,-662.2072,5.2069195e-15
1643.4675,-670.63367,4.9258553e-15
1645.1438,-679.14325,4.8669365e-15
1646.8201,-687.74036,5.1363345e-15
1648.4966,-696.42834,4.9194454e-15
1650.173,-705.20044,4.619122e-15
1651.8492,-714.0624,4.6007505e-15
1653.5256,-723.0131,4.840777e-15
1655.2021,-732.0568,5.058707e-15
1656.8784,-741.1884,5.1989887e-15
1658.5548,-750.412,5.40409e-15
1660.2312,-759.7279,6.0563936e-15
1661.9077,-769.1355,4.8655665e-15
1663.584,-778.6356,5.0612734e-15
1665.2603,-788.2319,5.077021e-15
1666.9368,-797.92194,5.0187604e-15
1668.6132,-807.7067,4.636715e-15
1670.2894,-817.5859,5.0681204e-15
1671.966,-827.56573,4.8304697e-15
1673.6423,-837.63885,4.532634e-15
1675.3186,-847.8112,4.758661e-15
1676.995,-858.08215,5.22252e-15
1678.6714,-868.4515,4.3256744e-15
1680.3479,-878.92194,4.3721088e-15
1682.0242,-889.49316,4.2261858e-15
1683.7006,-900.1646,4.139074e-15
1685.3771,-910.939,4.4770507e-15
1687.0533,-921.8139,4.3326697e-15
1688.7296,-932.79156,4.422971e-15
1690.4061,-943.87836,4.3114074e-15
1692.0825,-955.064,4.2579597e-15
1693.7589,-966.359,4.271224e-15
1695.4352,-977.75714,4.4128545e-15
1697.1116,-989.2645,4.5601476e-15
1698.7881,-1000.87714,4.2156017e-15
1700.4644,-1012.5993,4.0319205e-15
1702.1407,-1024.4298,4.1726914e-15
1703.8173,-1036.3717,4.5190965e-15
1705.4935,-1048.4205,4.159467e-15
1707.1698,-1060.582,4.1869813e-15
1708.8463,-1072.8545,4.0027508e-15
1710.5227,-1085.2393,4.1413664e-15
1712.1991,-1097.7368,4.1643587e-15
1713.8755,-1110.3496,4.1571725e-15
1715.5519,-1123.0765,4.3417295e-15
1717.2283,-1135.9196,4.277241e-15
1718.9045,-1148.8738,4.64336e-15
1720.5809,-1161.9484,4.3547264e-15
1722.2574,-1175.1423,4.1565973e-15
1723.9337,-1188.448,3.932694e-15
1725.61,-1201.8773,4.3191294e-15
1727.2866,-1215.4238,4.0229872e-15
1728.9629,-1229.0946,3.8770113e-15
1730.6393,-1242.88,3.8754968e-15
1732.3157,-1256.7919,3.977613e-15
1733.9921,-1270.8265,3.9869756e-15
1735.6685,-1284.9805,3.896023e-15
1737.3447,-1299.2609,3.9205924e-15
1739.0211,-1313.6633,3.8355854e-15
1740.6976,-1328.1953,3.8201017e-15
1742.3739,-1342.8496,3.7796677e-15
1744.0504,-1357.634,3.8385657e-15
1745.7268,-1372.5443,3.87904e-15
1747.4031,-1387.5823,3.969192e-15
1749.0795,-1402.748,3.7816807e-15
1750.7559,-1418.0461,3.7869056e-15
1752.4323,-1433.476,3.795885e-15
1754.1086,-1449.0312,3.844651e-15
1755.785,-1464.7251,3.7489153e-15
1757.4614,-1480.5477,3.776594e-15
1759.1378,-1496.5057,3.7802344e-15
1760.8141,-1512.5966,3.7298422e-15
1762.4906,-1528.8228,3.6303e-15
1764.167,-1545.186,3.5367247e-15
1765.8433,-1561.6819,3.553033e-15
1767.5197,-1578.3208,3.4942123e-15
1769.196,-1595.0927,3.576808e-15
1770.8724,-1612.0039,3.563976e-15
1772.5488,-1629.0581,3.6685895e-15
1774.2252,-1646.25,3.6394024e-15
1775.9016,-1663.5829,3.6252053e-15
1777.578,-1681.0614,3.6065236e-15
1779.2543,-1698.6761,3.5999116e-15
1780.9308,-1716.4397,3.5753765e-15
1782.6072,-1734.344,3.5061332e-15
1784.2834,-1752.3966,3.5621687e-15
1785.96,-1770.59,4.84758e-15
1787.6364,-1788.9358,3.6417076e-15
1789.3126,-1807.4225,3.475961e-15
1790.989,-1826.06,4.9142675e-15
1792.6654,-1844.844,5.3083466e-15
1794.3419,-1863.7834,3.909631e-15
1796.0182,-1882.8674,3.4479518e-15
1797.6945,-1902.1014,3.3668594e-15
1799.3711,-1921.4955,3.3878343e-15
1801.0474,-1941.0338,3.392564e-15
1802.7236,-1960.728,3.3701355e-15
1804.4001,-1980.579,3.829588e-15
1806.0765,-2000.5819,4.2713517e-15
1807.7528,-2020.741,3.3910873e-15
1809.4292,-2041.0569,3.3811863e-15
1811.1056,-2061.5305,3.2943718e-15
1812.7821,-2082.1628,3.2867822e-15
1814.4584,-2102.949,3.2820377e-15
1816.1348,-2123.901,3.8226012e-15
1817.8113,-2145.0103,3.8202067e-15
1819.4875,-2166.2842,3.3407276e-15
1821.1638,-2187.713,3.2407965e-15
1822.8403,-2209.311,3.2192853e-15
1824.5167,-2231.0664,3.223344e-15
1826.193,-2252.9934,3.2032715e-15
1827.8694,-2275.0786,3.1817734e-15
1829.5459,-2297.3374,3.18116e-15
1831.2223,-2319.7551,3.1434767e-15
1832.8986,-2342.3428,3.1202894e-15
1834.575,-2365.0989,3.1421905e-15
1836.2515,-2388.0266,3.122683e-15
1837.9277,-2411.119,3.1299403e-15
1839.604,-2434.3818,3.104438e-15
1841.2805,-2457.822,3.069682e-15
1842.9569,-2481.432,3.0721913e-15
1844.6333,-2505.2131,3.0927026e-15
1846.3097,-2529.1692,3.046898e-15
1847.9861,-2553.2998,3.0625685e-15
1849.6625,-2577.6045,3.0728214e-15
1851.3387,-2602.0828,3.0777986e-15
1853.0151,-2626.743,3.0650285e-15
1854.6917,-2651.579,3.0701035e-15
1856.3679,-2676.5906,3.0552337e-15
1858.0443,-2701.7883,3.059227e-15
1859.7208,-2727.1624,3.0927752e-15
1861.3971,-2752.7153,3.0552144e-15
1863.0735,-2778.448,3.061803e-15
1864.7499,-2804.3694,3.0593729e-15
1866.4263,-2830.4697,3.0497957e-15
1868.1027,-2856.753,3.0537852e-15
1869.7789,-2883.2239,3.092843e-15
1871.4553,-2909.8713,3.073323e-15
1873.1318,-2936.7214,3.133936e-15
1874.8081,-2963.747,3.0687476e-15
1876.4845,-2990.9683,3.0645868e-15
1878.161,-3018.371,3.0626554e-15
1879.8373,-3045.9656,3.1174156e-15
1881.5137,-3073.75,3.1565388e-15
1883.1901,-3101.7244,3.121982e-15
1884.8665,-3129.8896,3.1616254e-15
1886.5428,-3158.2495,3.1638243e-15
1888.2192,-3186.8079,3.2591695e-15
1889.8956,-3215.5554,3.4055923e-15
1891.572,-3244.4963,4.06136e-15
1893.2483,-3273.6343,4.134275e-15
1894.9248,-3302.9695,3.361894e-15
1896.6012,-3332.5042,3.2692041e-15
1898.2775,-3362.2295,3.1279995e-15
1899.9539,-3392.1619,2.9963092e-15
1901.6304,-3422.29,3.0583965e-15
1903.3066,-3452.6177,3.1006516e-15
1904.983,-3483.1462,3.0697645e-15
1906.6594,-3513.88,3.0951234e-15
1908.3358,-3544.8193,3.258606e-15
1910.0122,-3575.9507,3.3725415e-15
1911.6885,-3607.2937,3.1660334e-15
1913.365,-3638.8406,3.1155824e-15
1915.0414,-3670.5964,3.2138205e-15
1916.7177,-3702.5576,3.1365514e-15
1918.3942,-3734.731,3.2393225e-15
1920.0706,-3767.1055,3.1830848e-15
1921.7468,-3799.6836,3.361562e-15
1923.4232,-3832.4783,3.264293e-15
1925.0996,-3865.491,3.3107174e-15
1926.776,-3898.7048,3.1407526e-15
1928.4524,-3932.1338,3.111549e-15
1930.1287,-3965.766,3.0363872e-15
1931.8053,-3999.6343,3.0000533e-15
1933.4816,-4033.6934,2.9864124e-15
1935.1578,-4067.9846,2.9927243e-15
1936.8344,-4102.4834,2.9835385e-15
1938.5107,-4137.1987,3.046908e-15
1940.187,-4172.1353,3.2632772e-15
1941.8634,-4207.2886,3.2580493e-15
1943.5398,-4242.656,3.4105987e-15
1945.2163,-4278.2544,3.6991085e-15
1946.8926,-4314.067,3.6931462e-15
1948.569,-4350.0913,3.512647e-15
1950.2455,-4386.358,3.4240972e-15
1951.9218,-4422.8223,3.3973373e-15
1953.598,-4459.5317,3.4021023e-15
1955.2745,-4496.457,3.4140567e-15
1956.9509,-4533.6123,3.3764893e-15
1958.6272,-4570.9824,3.514095e-15
1960.3037,-4608.593,3.595435e-15
1961.9801,-4646.4185,3.5118628e-15
1963.6565,-4684.4795,3.4824654e-15
1965.3328,-4722.766,3.7067415e-15
1967.0092,-4761.29,3.8609905e-15
1968.6857,-4800.036,3.7476985e-15
1970.3619,-4839.0156,4.0992164e-15
1972.0382,-4878.2183,3.9432475e-15
1973.7147,-4917.6626,3.807892e-15
1975.3911,-4957.339,3.7403865e-15
1977.0674,-4997.2534,3.839598e-15
1978.7439,-5037.394,3.7597205e-15
